Wavelength	61141<10	sd	61141 10-20	sd	61141 20-45	sd	61141 <45	sd
300.00	0.085094	0.084395	0.067225	0.083723	0.050431	0.082827	0.072402	0.083998
305.00	0.088280	0.056731	0.069359	0.056395	0.054260	0.056077	0.075342	0.056682
310.00	0.090670	0.040886	0.072261	0.041174	0.056157	0.041270	0.080165	0.041102
315.00	0.092292	0.030595	0.073531	0.030935	0.056851	0.031333	0.080264	0.030812
320.00	0.093072	0.023940	0.074636	0.023890	0.059633	0.024134	0.081233	0.023899
325.00	0.095422	0.019008	0.075486	0.019160	0.059634	0.019147	0.083602	0.019130
330.00	0.096462	0.015569	0.076568	0.015512	0.060041	0.015664	0.084083	0.015436
335.00	0.098251	0.013064	0.077497	0.012712	0.061543	0.012788	0.085054	0.012873
340.00	0.10056	0.010766	0.079167	0.010756	0.061785	0.010519	0.086388	0.010723
345.00	0.10123	0.0088890	0.080789	0.0089140	0.062461	0.0089380	0.087785	0.0088330
350.00	0.10382	0.0077260	0.082022	0.0072950	0.063410	0.0074590	0.088983	0.0075020
355.00	0.10588	0.0065740	0.083122	0.0063510	0.063981	0.0061760	0.091092	0.0063970
360.00	0.10895	0.0056600	0.085157	0.0054210	0.064493	0.0053390	0.093068	0.0054260
365.00	0.11118	0.0049600	0.087062	0.0046870	0.065159	0.0046150	0.095562	0.0046520
370.00	0.11362	0.0045700	0.088814	0.0041250	0.066353	0.0039930	0.097193	0.0040810
375.00	0.11612	0.0042200	0.090206	0.0035960	0.067843	0.0036210	0.099124	0.0037320
380.00	0.11898	0.0039640	0.091771	0.0034440	0.069127	0.0033510	0.10096	0.0034960
385.00	0.12137	0.0039530	0.093627	0.0034360	0.069979	0.0033310	0.10308	0.0034910
390.00	0.12345	0.0043270	0.094937	0.0037420	0.071294	0.0036980	0.10566	0.0038540
395.00	0.12655	0.0052160	0.097073	0.0047090	0.072285	0.0046650	0.10796	0.0048010
400.00	0.12887	0.0032530	0.098728	0.0022790	0.073003	0.0021480	0.10884	0.0023280
405.00	0.13163	0.0030230	0.10037	0.0019400	0.074258	0.0017510	0.11006	0.0020080
410.00	0.13357	0.0030430	0.10179	0.0017210	0.075207	0.0014840	0.11229	0.0018560
415.00	0.13609	0.0029160	0.10321	0.0014920	0.076320	0.0013080	0.11381	0.0016500
420.00	0.13827	0.0027810	0.10481	0.0014540	0.077008	0.0011870	0.11565	0.0015990
425.00	0.14096	0.0028570	0.10651	0.0013810	0.078553	0.0011530	0.11748	0.0015480
430.00	0.14313	0.0025300	0.10800	0.0013520	0.079709	0.0011020	0.11934	0.0014550
435.00	0.14562	0.0024580	0.10946	0.0013510	0.080183	0.0010440	0.12104	0.0015470
440.00	0.14794	0.0025550	0.11114	0.0013730	0.080970	0.0010480	0.12261	0.0015340
445.00	0.14983	0.0026510	0.11239	0.0013290	0.082089	0.0010140	0.12420	0.0015450
450.00	0.15235	0.0025230	0.11393	0.0013520	0.082762	0.00094500	0.12555	0.0015730
455.00	0.15408	0.0024830	0.11528	0.0012990	0.083611	0.00090700	0.12714	0.0016200
460.00	0.15625	0.0027510	0.11670	0.0013970	0.084122	0.00094000	0.12828	0.0016970
465.00	0.15822	0.0026760	0.11797	0.0012920	0.084701	0.00090100	0.13003	0.0014860
470.00	0.16027	0.0029620	0.11942	0.0013260	0.085537	0.00092700	0.13128	0.0015210
475.00	0.16214	0.0029150	0.12080	0.0012730	0.086690	0.00096100	0.13272	0.0013220
480.00	0.16442	0.0028500	0.12224	0.0013740	0.087725	0.0011160	0.13417	0.0014770
485.00	0.16612	0.0027940	0.12347	0.0013390	0.088798	0.0010530	0.13543	0.0014020
490.00	0.16832	0.0027810	0.12492	0.0013430	0.089675	0.0010790	0.13683	0.0014000
495.00	0.17017	0.0028440	0.12624	0.0013780	0.090406	0.0010700	0.13820	0.0015430
500.00	0.17214	0.0026120	0.12759	0.0013800	0.091057	0.0010890	0.13947	0.0015350
505.00	0.17422	0.0026550	0.12892	0.0013950	0.092236	0.0010650	0.14094	0.0017300
510.00	0.17613	0.0026110	0.13028	0.0014050	0.092929	0.0010470	0.14218	0.0017310
515.00	0.17823	0.0027050	0.13170	0.0014170	0.094180	0.0011160	0.14366	0.0018780
520.00	0.17989	0.0025150	0.13293	0.0014630	0.095087	0.0011520	0.14485	0.0019250
525.00	0.18218	0.0025350	0.13440	0.0014700	0.095867	0.0012160	0.14595	0.0018860
530.00	0.18335	0.0024610	0.13541	0.0014210	0.096675	0.0012020	0.14790	0.0019300
535.00	0.18601	0.0024610	0.13700	0.0014210	0.097733	0.0012550	0.14885	0.0018950
540.00	0.18706	0.0025890	0.13785	0.0015110	0.098701	0.0013340	0.15070	0.0020600
545.00	0.18957	0.0024840	0.13933	0.0015010	0.099599	0.0013490	0.15164	0.0017490
550.00	0.19085	0.0029360	0.14035	0.0014740	0.10054	0.0013950	0.15340	0.0017370
555.00	0.19298	0.0029020	0.14166	0.0014820	0.10065	0.0012620	0.15435	0.0018140
560.00	0.19410	0.0027780	0.14271	0.0015170	0.10146	0.0012900	0.15589	0.0018610
565.00	0.19617	0.0029020	0.14407	0.0015220	0.10143	0.0012550	0.15658	0.0021490
570.00	0.19745	0.0025980	0.14520	0.0015330	0.10204	0.0012210	0.15818	0.0021770
575.00	0.19939	0.0027050	0.14639	0.0015580	0.10257	0.0013310	0.15915	0.0022590
580.00	0.20064	0.0026710	0.14742	0.0015450	0.10313	0.0012970	0.16026	0.0022620
585.00	0.20244	0.0026890	0.14864	0.0015760	0.10376	0.0012810	0.16145	0.0022100
590.00	0.20402	0.0030150	0.14971	0.0015670	0.10441	0.0012990	0.16251	0.0021520
595.00	0.20522	0.0029380	0.15070	0.0015660	0.10548	0.0013330	0.16362	0.0019960
600.00	0.20719	0.0030320	0.15203	0.0015910	0.10612	0.0014370	0.16454	0.0019810
605.00	0.20869	0.0031010	0.15311	0.0015920	0.10701	0.0016110	0.16555	0.0020130
610.00	0.21048	0.0030660	0.15434	0.0015610	0.10785	0.0017040	0.16676	0.0020200
615.00	0.21169	0.0030580	0.15536	0.0016200	0.10884	0.0015580	0.16827	0.0019270
620.00	0.21362	0.0032650	0.15648	0.0015970	0.10974	0.0015790	0.16927	0.0019210
625.00	0.21478	0.0032920	0.15756	0.0016240	0.11077	0.0014920	0.17060	0.0017150
630.00	0.21661	0.0031890	0.15867	0.0016540	0.11127	0.0016270	0.17182	0.0017400
635.00	0.21792	0.0031570	0.15972	0.0016510	0.11145	0.0014810	0.17305	0.0020950
640.00	0.21933	0.0030830	0.16078	0.0016910	0.11195	0.0016100	0.17367	0.0021550
645.00	0.22074	0.0030860	0.16178	0.0017130	0.11233	0.0016610	0.17507	0.0022240
650.00	0.22227	0.0031130	0.16291	0.0017440	0.11296	0.0016800	0.17579	0.0022870
655.00	0.22359	0.0030920	0.16390	0.0016230	0.11376	0.0015410	0.17718	0.0021410
660.00	0.22513	0.0032990	0.16482	0.0016960	0.11445	0.0016110	0.17785	0.0021660
665.00	0.22629	0.0033950	0.16589	0.0016840	0.11503	0.0016070	0.17899	0.0019480
670.00	0.22798	0.0035450	0.16707	0.0016740	0.11600	0.0016440	0.17995	0.0019630
675.00	0.22902	0.0035210	0.16784	0.0017450	0.11689	0.0015470	0.18081	0.0017980
680.00	0.23063	0.0037670	0.16912	0.0017010	0.11774	0.0016230	0.18173	0.0017940
685.00	0.23176	0.0037720	0.16996	0.0016880	0.11895	0.0016620	0.18264	0.0017210
690.00	0.23268	0.0041290	0.17069	0.0017880	0.11960	0.0018860	0.18364	0.0018360
695.00	0.23487	0.0040870	0.17200	0.0016860	0.12012	0.0017370	0.18429	0.0016940
700.00	0.23546	0.0042410	0.17281	0.0017900	0.12116	0.0018710	0.18598	0.0018230
705.00	0.23734	0.0042220	0.17387	0.0018050	0.12197	0.0018890	0.18632	0.0017620
710.00	0.23798	0.0039740	0.17457	0.0017250	0.12267	0.0019910	0.18765	0.0017460
715.00	0.23978	0.0040940	0.17556	0.0018690	0.12246	0.0019510	0.18825	0.0019340
720.00	0.24081	0.0039540	0.17652	0.0018380	0.12294	0.0019650	0.18982	0.0019000
725.00	0.24210	0.0037830	0.17721	0.0017070	0.12317	0.0017290	0.19126	0.0018870
730.00	0.24291	0.0040410	0.17802	0.0018600	0.12389	0.0017670	0.19244	0.0020900
735.00	0.24435	0.0040140	0.17906	0.0017900	0.12431	0.0015630	0.19328	0.0020730
740.00	0.24522	0.0043370	0.17992	0.0018370	0.12477	0.0015450	0.19427	0.0021270
745.00	0.24644	0.0042600	0.18074	0.0018900	0.12578	0.0014990	0.19508	0.0021660
750.00	0.24817	0.0045410	0.18183	0.0018290	0.12646	0.0014780	0.19595	0.0021570
755.00	0.24880	0.0045790	0.18246	0.0017840	0.12755	0.0015080	0.19730	0.0019380
760.00	0.25049	0.0043710	0.18341	0.0018600	0.12777	0.0015650	0.19761	0.0020540
765.00	0.25117	0.0044910	0.18421	0.0019570	0.12754	0.0016340	0.19879	0.0021770
770.00	0.25291	0.0041700	0.18523	0.0018950	0.12786	0.0015910	0.19892	0.0021420
775.00	0.25350	0.0043640	0.18579	0.0019460	0.12861	0.0016090	0.20030	0.0022090
780.00	0.25521	0.0045240	0.18677	0.0019470	0.12933	0.0016100	0.20057	0.0023080
785.00	0.25554	0.0044800	0.18720	0.0020120	0.12983	0.0017090	0.20181	0.0021910
790.00	0.25716	0.0045510	0.18793	0.0020260	0.12984	0.0017010	0.20210	0.0021540
795.00	0.25789	0.0046360	0.18867	0.0020560	0.13078	0.0017790	0.20326	0.0023260
800.00	0.25922	0.0048230	0.18917	0.0031560	0.13120	0.00091000	0.20402	0.0033050
805.00	0.26033	0.0049530	0.19005	0.0033060	0.13140	0.0010010	0.20465	0.0034270
810.00	0.26135	0.0047640	0.19041	0.0034340	0.13192	0.00095100	0.20532	0.0034080
815.00	0.26201	0.0046750	0.19112	0.0034640	0.13201	0.00096100	0.20542	0.0037330
820.00	0.26298	0.0048510	0.19163	0.0033650	0.13232	0.0010100	0.20645	0.0036600
825.00	0.26427	0.0046210	0.19210	0.0031570	0.13240	0.00098700	0.20656	0.0033440
830.00	0.26452	0.0049260	0.19196	0.0035020	0.13250	0.00097900	0.20777	0.0036030
835.00	0.26608	0.0050160	0.19311	0.0032600	0.13282	0.00099100	0.20783	0.0034010
840.00	0.26682	0.0048040	0.19280	0.0032660	0.13319	0.0010170	0.20885	0.0035040
845.00	0.26721	0.0048550	0.19342	0.0031040	0.13349	0.0010530	0.20881	0.0034540
850.00	0.26840	0.0047170	0.19363	0.0031720	0.13363	0.0011090	0.20994	0.0035350
855.00	0.26871	0.0040650	0.19335	0.0037000	0.13359		0.20954	0.0039010
860.00	0.26963	0.0046520	0.19350	0.0036210	0.13404		0.20996	0.0042740
865.00	0.27069	0.0041600	0.19442	0.0032620	0.13333		0.21095	0.0037880
870.00	0.27071	0.0037630	0.19492	0.0032170	0.13360		0.21071	0.0037030
875.00	0.27121	0.0038240	0.19479	0.0029560	0.13381		0.21126	0.0033110
880.00	0.27203	0.0038460	0.19524	0.0029070	0.13457		0.21176	0.0035580
885.00	0.27313	0.0036860	0.19485	0.0027360	0.13430		0.21180	0.0028500
890.00	0.27429	0.0037170	0.19480	0.0026820	0.13449		0.21188	0.0028130
895.00	0.27464	0.0034870	0.19556	0.0025730	0.13514		0.21340	0.0030780
900.00	0.27483	0.0034040	0.19628	0.0025500	0.13497		0.21315	0.0027630
905.00	0.27609	0.0039490	0.19666	0.0032980	0.13560		0.21396	0.0036480
910.00	0.27685	0.0038130	0.19693	0.0029420	0.13568		0.21450	0.0032590
915.00	0.27705	0.0037070	0.19714	0.0028030	0.13587		0.21516	0.0033190
920.00	0.27850	0.0036760	0.19739	0.0028330	0.13666		0.21568	0.0034660
925.00	0.27917	0.0035320	0.19768	0.0027600	0.13710		0.21590	0.0032020
930.00	0.28070	0.0033390	0.19903	0.0024600	0.13698		0.21638	0.0035050
935.00	0.28054	0.0032620	0.19887	0.0025750	0.13680		0.21759	0.0033290
940.00	0.28181	0.0034420	0.19972	0.0026120	0.13751		0.21745	0.0033000
945.00	0.28273	0.0033600	0.19962	0.0025500	0.13810		0.21923	0.0030980
950.00	0.28374	0.0034470	0.20117	0.0023520	0.13880		0.21897	0.0025230
955.00	0.28439	0.0032380	0.20135	0.0025220	0.13899		0.22033	0.0026590
960.00	0.28525	0.0030630	0.20239	0.0026130	0.13959		0.22048	0.0030070
965.00	0.28637	0.0033300	0.20348	0.0024620	0.13986		0.22176	0.0029530
970.00	0.28705	0.0033980	0.20397	0.0025340	0.14059		0.22262	0.0029410
975.00	0.28818	0.0034110	0.20461	0.0025220	0.14131		0.22338	0.0024640
980.00	0.28927	0.0033970	0.20529	0.0023980	0.14222		0.22401	0.0027090
985.00	0.28988	0.0031540	0.20663	0.0024310	0.14282		0.22527	0.0032750
990.00	0.29112	0.0034460	0.20772	0.0026400	0.14342		0.22603	0.0030050
995.00	0.29205	0.0035380	0.20882	0.0024120	0.14419		0.22666	0.0028340
1000.0	0.29230	0.0031460	0.20899	0.0022670	0.14477		0.22705	0.0026830
1005.0	0.29377	0.0032790	0.21013	0.0025630	0.14536		0.22808	0.0029930
1010.0	0.29453	0.0034170	0.21089	0.0026320	0.14629		0.22975	0.0028230
1015.0	0.29585	0.0033800	0.21225	0.0029030	0.14698		0.23015	0.0032930
1020.0	0.29660	0.0033360	0.21326	0.0027080	0.14792		0.23156	0.0028920
1025.0	0.29858	0.0036440	0.21414	0.0027210	0.14827		0.23218	0.0029680
1030.0	0.29912	0.0039220	0.21534	0.0025830	0.14909		0.23313	0.0028810
1035.0	0.30039	0.0040170	0.21613	0.0028740	0.14947		0.23359	0.0030070
1040.0	0.30115	0.0036170	0.21725	0.0028360	0.15018		0.23536	0.0029600
1045.0	0.30215	0.0034040	0.21781	0.0027020	0.15067		0.23571	0.0035180
1050.0	0.30292	0.0037030	0.21876	0.0028220	0.15149		0.23735	0.0033950
1055.0	0.30448	0.0035430	0.22019	0.0027930	0.15188		0.23768	0.0034300
1060.0	0.30517	0.0036740	0.22083	0.0027750	0.15260		0.23865	0.0033260
1065.0	0.30571	0.0037120	0.22165	0.0027270	0.15393		0.23887	0.0035890
1070.0	0.30701	0.0038510	0.22245	0.0025860	0.15433		0.24036	0.0034470
1075.0	0.30841	0.0038250	0.22416	0.0030380	0.15463		0.24107	0.0033870
1080.0	0.30881	0.0038750	0.22496	0.0027170	0.15497		0.24195	0.0027740
1085.0	0.31017	0.0039890	0.22548	0.0027560	0.15636		0.24321	0.0033450
1090.0	0.31075	0.0034680	0.22643	0.0026990	0.15681		0.24389	0.0034650
1095.0	0.31174	0.0035020	0.22714	0.0028310	0.15706		0.24451	0.0032320
1100.0	0.31270	0.0040030	0.22823	0.0027380	0.15806		0.24540	0.0033050
1105.0	0.31397	0.0038370	0.22939	0.0027840	0.15837		0.24635	0.0028360
1110.0	0.31483	0.0034550	0.23005	0.0024980	0.15945		0.24750	0.0028750
1115.0	0.31578	0.0036110	0.23063	0.0028240	0.16045		0.24824	0.0034710
1120.0	0.31705	0.0038070	0.23178	0.0025210	0.16086		0.24939	0.0034510
1125.0	0.31785	0.0033540	0.23302	0.0027010	0.16111		0.24952	0.0030670
1130.0	0.31828	0.0039990	0.23378	0.0026510	0.16142		0.25042	0.0034710
1135.0	0.31933	0.0037170	0.23431	0.0024870	0.16292		0.25220	0.0030340
1140.0	0.32034	0.0037550	0.23530	0.0025360	0.16324		0.25239	0.0030310
1145.0	0.32146	0.0036540	0.23626	0.0028280	0.16387		0.25325	0.0035760
1150.0	0.32274	0.0038220	0.23701	0.0026390	0.16416		0.25382	0.0032670
1155.0	0.32289	0.0041410	0.23823	0.0025040	0.16519		0.25467	0.0029340
1160.0	0.32390	0.0035900	0.23900	0.0029260	0.16624		0.25574	0.0029300
1165.0	0.32519	0.0036190	0.23995	0.0028340	0.16691		0.25673	0.0035550
1170.0	0.32649	0.0041640	0.24081	0.0027850	0.16782		0.25737	0.0033590
1175.0	0.32668	0.0040860	0.24094	0.0026340	0.16828		0.25805	0.0028920
1180.0	0.32839	0.0039920	0.24240	0.0025580	0.16866		0.25906	0.0029550
1185.0	0.32807	0.0041720	0.24313	0.0027970	0.16905		0.26004	0.0032020
1190.0	0.32971	0.0040290	0.24429	0.0026460	0.16954		0.26079	0.0033990
1195.0	0.33067	0.0037660	0.24487	0.0029750	0.17084		0.26128	0.0027950
1200.0	0.33118	0.0040700	0.24560	0.0026780	0.17094		0.26155	0.0027830
1205.0	0.33267	0.0040160	0.24578	0.0029070	0.17191		0.26309	0.0035620
1210.0	0.33297	0.0046320	0.24772	0.0027370	0.17208		0.26450	0.0031970
1215.0	0.33361	0.0043720	0.24820	0.0030450	0.17290		0.26477	0.0036200
1220.0	0.33511	0.0049680	0.24981	0.0030530	0.17338		0.26566	0.0035310
1225.0	0.33607	0.0046520	0.24976	0.0029020	0.17417		0.26687	0.0032240
1230.0	0.33660	0.0048110	0.25029	0.0028460	0.17430		0.26650	0.0030750
1235.0	0.33764	0.0051160	0.25145	0.0028090	0.17554		0.26851	0.0033370
1240.0	0.33809	0.0050060	0.25213	0.0028020	0.17603		0.26849	0.0030550
1245.0	0.33874	0.0047870	0.25322	0.0029530	0.17648		0.26906	0.0030430
1250.0	0.33986	0.0056750	0.25337	0.0028750	0.17648		0.27040	0.0034780
1255.0	0.34144	0.0054300	0.25466	0.0029160	0.17785		0.27079	0.0031440
1260.0	0.34181	0.0061760	0.25574	0.0028830	0.17782		0.27183	0.0029970
1265.0	0.34269	0.0055110	0.25583	0.0028470	0.17877		0.27243	0.0028510
1270.0	0.34288	0.0052820	0.25688	0.0030590	0.17980		0.27325	0.0030940
1275.0	0.34436	0.0056670	0.25747	0.0028110	0.17962		0.27335	0.0032730
1280.0	0.34427	0.0052100	0.25829	0.0029870	0.18101		0.27422	0.0033270
1285.0	0.34579	0.0056280	0.25948	0.0030350	0.18137		0.27502	0.0029490
1290.0	0.34657	0.0061280	0.26027	0.0027350	0.18200		0.27621	0.0030230
1295.0	0.34769	0.0055730	0.26069	0.0028230	0.18241		0.27618	0.0034580
1300.0	0.34779	0.0059300	0.26126	0.0028320	0.18354		0.27715	0.0032460
1305.0	0.34947	0.0058810	0.26287	0.0028030	0.18359		0.27767	0.0034710
1310.0	0.34964	0.0054660	0.26345	0.0027810	0.18471		0.27892	0.0031820
1315.0	0.35142	0.0056310	0.26459	0.0028320	0.18534		0.27881	0.0030000
1320.0	0.35186	0.0060800	0.26482	0.0028570	0.18617		0.27939	0.0029100
1325.0	0.35263	0.0058460	0.26606	0.0025430	0.18703		0.28055	0.0036520
1330.0	0.35363	0.0059350	0.26677	0.0030240	0.18743		0.28131	0.0035730
1335.0	0.35472	0.0059530	0.26895	0.0029830	0.18823		0.28247	0.0028560
1340.0	0.35519	0.0058140	0.26888	0.0027000	0.18907		0.28339	0.0028130
1345.0	0.35623	0.0058360	0.26999	0.0026510	0.18997		0.28405	0.0035930
1350.0	0.35636	0.0057940	0.27024	0.0027350	0.19060		0.28509	0.0035350
1355.0	0.35771	0.0057610	0.27095	0.0027110	0.19108		0.28558	0.0028760
1360.0	0.35864	0.0056410	0.27202	0.0028730	0.19191		0.28642	0.0031850
1365.0	0.35960	0.0060430	0.27387	0.0031520	0.19267		0.28684	0.0038370
1370.0	0.36047	0.0059660	0.27368	0.0033210	0.19313		0.28753	0.0039900
1375.0	0.36124	0.0061990	0.27557	0.0029820	0.19386		0.28791	0.0030060
1380.0	0.36200	0.0061040	0.27596	0.0030080	0.19507		0.28883	0.0031030
1385.0	0.36276	0.0068010	0.27766	0.0031370	0.19541		0.28966	0.0033080
1390.0	0.36347	0.0066790	0.27825	0.0030560	0.19603		0.29065	0.0034550
1395.0	0.36417	0.0070570	0.27859	0.0030510	0.19678		0.29147	0.0034350
1400.0	0.36500	0.0067710	0.27941	0.0028910	0.19768		0.29257	0.0033040
1405.0	0.36561	0.0065350	0.27999	0.0030230	0.19816		0.29343	0.0031100
1410.0	0.36636	0.0064310	0.28170	0.0030890	0.19876		0.29418	0.0031710
1415.0	0.36709	0.0066860	0.28142	0.0029940	0.19983		0.29507	0.0034920
1420.0	0.36808	0.0068350	0.28287	0.0032070	0.20054		0.29584	0.0035880
1425.0	0.36927	0.0065240	0.28348	0.0033550	0.20136		0.29657	0.0033110
1430.0	0.37005	0.0068190	0.28501	0.0028870	0.20169		0.29674	0.0030100
1435.0	0.36997	0.0064570	0.28576	0.0029570	0.20233		0.29707	0.0034630
1440.0	0.37152	0.0062090	0.28640	0.0031210	0.20327		0.29884	0.0036420
1445.0	0.37172	0.0056250	0.28668	0.0030040	0.20351		0.29889	0.0034050
1450.0	0.37285	0.0064100	0.28773	0.0031360	0.20459		0.29953	0.0033860
1455.0	0.37300	0.0066020	0.28849	0.0030910	0.20490		0.30097	0.0041560
1460.0	0.37477	0.0065010	0.28991	0.0031050	0.20591		0.30130	0.0041550
1465.0	0.37487	0.0064930	0.29060	0.0027720	0.20620		0.30238	0.0029910
1470.0	0.37522	0.0067060	0.29165	0.0029310	0.20666		0.30323	0.0031840
1475.0	0.37690	0.0071070	0.29227	0.0032300	0.20750		0.30402	0.0037780
1480.0	0.37761	0.0065100	0.29283	0.0028480	0.20825		0.30390	0.0035390
1485.0	0.37801	0.0064300	0.29337	0.0029970	0.20894		0.30513	0.0035630
1490.0	0.37841	0.0061120	0.29385	0.0030060	0.20910		0.30565	0.0034740
1495.0	0.37977	0.0058200	0.29468	0.0030760	0.20992		0.30644	0.0037120
1500.0	0.38099	0.0060520	0.29548	0.0032770	0.21132		0.30691	0.0036110
1505.0	0.38138	0.0058560	0.29601	0.0033130	0.21153		0.30792	0.0033290
1510.0	0.38197	0.0061470	0.29697	0.0029630	0.21203		0.30784	0.0032540
1515.0	0.38265	0.0060520	0.29787	0.0029360	0.21257		0.30992	0.0037670
1520.0	0.38370	0.0058170	0.29892	0.0029830	0.21323		0.31012	0.0037790
1525.0	0.38375	0.0059420	0.29882	0.0031720	0.21339		0.31052	0.0036950
1530.0	0.38511	0.0062260	0.29982	0.0031580	0.21390		0.31070	0.0035160
1535.0	0.38541	0.0065130	0.30022	0.0032420	0.21535		0.31192	0.0039610
1540.0	0.38593	0.0065350	0.30084	0.0031090	0.21595		0.31276	0.0035050
1545.0	0.38654	0.0061200	0.30153	0.0031020	0.21648		0.31253	0.0033410
1550.0	0.38715	0.0066060	0.30249	0.0030490	0.21648		0.31375	0.0031350
1555.0	0.38831	0.0068800	0.30323	0.0032610	0.21746		0.31384	0.0034790
1560.0	0.38831	0.0071940	0.30375	0.0032250	0.21784		0.31548	0.0037100
1565.0	0.38989	0.0070280	0.30458	0.0030780	0.21840		0.31542	0.0034890
1570.0	0.38991	0.0055850	0.30494	0.0031850	0.21868		0.31684	0.0037500
1575.0	0.39066	0.0061430	0.30496	0.0030490	0.21965		0.31613	0.0036500
1580.0	0.39172	0.0066160	0.30607	0.0032680	0.22061		0.31737	0.0035260
1585.0	0.39242	0.0062080	0.30709	0.0033770	0.22025		0.31820	0.0038680
1590.0	0.39235	0.0061190	0.30835	0.0032330	0.22064		0.31816	0.0035420
1595.0	0.39333	0.0062220	0.30795	0.0031710	0.22091		0.31867	0.0039340
1600.0	0.39334	0.0061570	0.30843	0.0033760	0.22157	0.0011000	0.31957	0.0038650
1605.0	0.39473	0.0062580	0.30956	0.0034320	0.22240	0.0012290	0.31946	0.0036140
1610.0	0.39459	0.0060310	0.30992	0.0033800	0.22316	0.0011710	0.32063	0.0035640
1615.0	0.39533	0.0062250	0.31002	0.0032980	0.22350	0.0011960	0.32075	0.0041850
1620.0	0.39547	0.0058180	0.31014	0.0031940	0.22410	0.0012500	0.32214	0.0040490
