Wavelength	61221 <10	sd	61221 10-20	sd	61221 20-45	sd	61221 <45	sd
300.00	0.22102	0.083445	0.20329	0.083910	0.15986	0.091004	0.20642	0.090777
305.00	0.22217	0.055155	0.20765	0.055631	0.16309	0.059630	0.21152	0.060044
310.00	0.22463	0.039938	0.20861	0.040091	0.16725	0.043264	0.21523	0.043044
315.00	0.22809	0.030793	0.21412	0.031479	0.16916	0.032750	0.21947	0.033501
320.00	0.23234	0.023838	0.21795	0.024416	0.17270	0.026091	0.22488	0.025918
325.00	0.23647	0.019874	0.22073	0.020873	0.17697	0.020761	0.22828	0.021263
330.00	0.24239	0.016317	0.22651	0.017577	0.17998	0.017151	0.23380	0.017625
335.00	0.24752	0.013912	0.23263	0.015430	0.18487	0.014508	0.23957	0.014819
340.00	0.25305	0.011783	0.23766	0.013638	0.18966	0.012269	0.24503	0.012557
345.00	0.25769	0.010552	0.24262	0.012640	0.19459	0.010408	0.24926	0.010745
350.00	0.26311	0.0092190	0.24802	0.011571	0.19910	0.0086990	0.25466	0.0091380
355.00	0.26757	0.0081750	0.25354	0.010375	0.20420	0.0075060	0.25889	0.0076650
360.00	0.27340	0.0073670	0.25901	0.010248	0.20980	0.0066280	0.26416	0.0070250
365.00	0.27806	0.0065090	0.26359	0.010599	0.21331	0.0058330	0.26796	0.0061990
370.00	0.28276	0.0062980	0.26853	0.010480	0.21742	0.0051830	0.27205	0.0056500
375.00	0.28749	0.0061870	0.27198	0.010512	0.22108	0.0048570	0.27566	0.0052550
380.00	0.29182	0.0060990	0.27653	0.010276	0.22515	0.0046470	0.27972	0.0050980
385.00	0.29531	0.0061280	0.28015	0.010780	0.22862	0.0047050	0.28399	0.0051100
390.00	0.29949	0.0065710	0.28370	0.011053	0.23185	0.0050470	0.28754	0.0054630
395.00	0.30243	0.0070710	0.28732	0.011591	0.23524	0.0061290	0.29155	0.0064650
400.00	0.30768	0.0053900	0.28969	0.010408	0.23797	0.0035350	0.29416	0.0039770
405.00	0.31128	0.0051140	0.29267	0.0098700	0.24076	0.0032150	0.29677	0.0037130
410.00	0.31410	0.0051610	0.29516	0.0099610	0.24327	0.0030790	0.29915	0.0035620
415.00	0.31709	0.0051080	0.29763	0.0098730	0.24547	0.0030670	0.30204	0.0035120
420.00	0.32028	0.0051610	0.30046	0.0098960	0.24733	0.0029010	0.30421	0.0034550
425.00	0.32280	0.0052140	0.30282	0.010061	0.24933	0.0028320	0.30678	0.0034640
430.00	0.32585	0.0052460	0.30557	0.010136	0.25121	0.0029200	0.30898	0.0033710
435.00	0.32866	0.0052600	0.30838	0.010272	0.25330	0.0029080	0.31137	0.0033080
440.00	0.33105	0.0051530	0.31062	0.010138	0.25463	0.0028130	0.31280	0.0032770
445.00	0.33354	0.0053800	0.31329	0.011045	0.25603	0.0028410	0.31479	0.0033640
450.00	0.33576	0.0052480	0.31483	0.010875	0.25749	0.0028930	0.31636	0.0033270
455.00	0.33752	0.0051660	0.31560	0.011797	0.25882	0.0030380	0.31832	0.0034480
460.00	0.34009	0.0054880	0.31795	0.011696	0.26057	0.0029390	0.32038	0.0033270
465.00	0.34242	0.0054870	0.32037	0.011448	0.26184	0.0029410	0.32193	0.0034330
470.00	0.34426	0.0053310	0.32174	0.011478	0.26344	0.0029900	0.32370	0.0034580
475.00	0.34635	0.0054730	0.32363	0.012131	0.26469	0.0031110	0.32545	0.0036690
480.00	0.34832	0.0053690	0.32489	0.012211	0.26619	0.0029910	0.32713	0.0034500
485.00	0.35060	0.0055700	0.32681	0.011904	0.26774	0.0030010	0.32936	0.0034540
490.00	0.35244	0.0054820	0.32821	0.012161	0.26888	0.0029760	0.33093	0.0034940
495.00	0.35407	0.0058380	0.32965	0.012322	0.27038	0.0030800	0.33286	0.0034390
500.00	0.35640	0.0056350	0.33159	0.012286	0.27169	0.0030960	0.33464	0.0036110
505.00	0.35813	0.0056230	0.33264	0.012360	0.27248	0.0030560	0.33628	0.0036670
510.00	0.35964	0.0057870	0.33469	0.012504	0.27461	0.0031650	0.33852	0.0036350
515.00	0.36176	0.0055220	0.33637	0.012652	0.27645	0.0030320	0.34027	0.0034410
520.00	0.36323	0.0056890	0.33814	0.012850	0.27832	0.0031770	0.34251	0.0036830
525.00	0.36526	0.0053850	0.33882	0.013312	0.27941	0.0031570	0.34390	0.0037230
530.00	0.36697	0.0055650	0.34094	0.013457	0.28087	0.0031540	0.34545	0.0039940
535.00	0.36867	0.0059080	0.34272	0.012947	0.28237	0.0032890	0.34741	0.0037980
540.00	0.37007	0.0056270	0.34449	0.013250	0.28362	0.0031400	0.34957	0.0036550
545.00	0.37180	0.0057510	0.34546	0.013475	0.28482	0.0030950	0.35124	0.0035150
550.00	0.37312	0.0057730	0.34692	0.013557	0.28583	0.0030110	0.35292	0.0034260
555.00	0.37483	0.0060490	0.34883	0.012950	0.28740	0.0031210	0.35468	0.0035320
560.00	0.37632	0.0059710	0.35030	0.013163	0.28869	0.0034080	0.35599	0.0037050
565.00	0.37803	0.0058270	0.35096	0.013423	0.28985	0.0033710	0.35715	0.0037130
570.00	0.37922	0.0058500	0.35262	0.013268	0.29158	0.0033920	0.35908	0.0034990
575.00	0.38089	0.0059480	0.35386	0.013029	0.29317	0.0034760	0.36024	0.0037510
580.00	0.38235	0.0059460	0.35506	0.013015	0.29394	0.0034650	0.36156	0.0037440
585.00	0.38401	0.0059590	0.35631	0.012911	0.29544	0.0036080	0.36233	0.0037410
590.00	0.38528	0.0059530	0.35771	0.012821	0.29629	0.0035420	0.36347	0.0038250
595.00	0.38656	0.0057770	0.35815	0.013899	0.29708	0.0034010	0.36480	0.0036130
600.00	0.38787	0.0060860	0.35958	0.013883	0.29826	0.0035290	0.36629	0.0038910
605.00	0.38926	0.0062030	0.36063	0.013618	0.29960	0.0034200	0.36635	0.0034960
610.00	0.39027	0.0059370	0.36172	0.013772	0.30058	0.0035010	0.36836	0.0037270
615.00	0.39160	0.0059070	0.36230	0.013227	0.30195	0.0034800	0.36935	0.0038600
620.00	0.39222	0.0062420	0.36417	0.013062	0.30297	0.0033660	0.37014	0.0037920
625.00	0.39379	0.0060710	0.36484	0.014163	0.30410	0.0033400	0.37179	0.0036950
630.00	0.39518	0.0059090	0.36593	0.014014	0.30489	0.0034860	0.37257	0.0039120
635.00	0.39668	0.0059590	0.36709	0.013353	0.30594	0.0034620	0.37413	0.0039840
640.00	0.39780	0.0060920	0.36854	0.013425	0.30707	0.0036140	0.37503	0.0039790
645.00	0.39877	0.0060100	0.36906	0.012625	0.30781	0.0036220	0.37582	0.0040040
650.00	0.39995	0.0058310	0.37011	0.012689	0.30868	0.0034720	0.37635	0.0037800
655.00	0.40163	0.0062250	0.37134	0.014393	0.30916	0.0033690	0.37657	0.0037390
660.00	0.40236	0.0060510	0.37247	0.014107	0.31015	0.0037000	0.37785	0.0040370
665.00	0.40441	0.0061820	0.37343	0.014612	0.31085	0.0036410	0.37821	0.0039920
670.00	0.40498	0.0062580	0.37419	0.014745	0.31170	0.0040900	0.37855	0.0046480
675.00	0.40650	0.0061600	0.37510	0.015260	0.31260	0.0037370	0.37962	0.0039870
680.00	0.40800	0.0062470	0.37609	0.015214	0.31343	0.0038590	0.38004	0.0042660
685.00	0.40925	0.0060580	0.37702	0.015623	0.31405	0.0037340	0.38073	0.0041110
690.00	0.41000	0.0062270	0.37816	0.015481	0.31387	0.0034260	0.38087	0.0037360
695.00	0.41138	0.0063660	0.37874	0.016480	0.31485	0.0034040	0.38165	0.0037200
700.00	0.41243	0.0062240	0.37975	0.016176	0.31513	0.0037600	0.38210	0.0040650
705.00	0.41342	0.0061630	0.38043	0.015454	0.31614	0.0037770	0.38313	0.0040820
710.00	0.41488	0.0065380	0.38179	0.015785	0.31666	0.0035750	0.38392	0.0038500
715.00	0.41659	0.0063410	0.38276	0.015698	0.31712	0.0036790	0.38407	0.0039090
720.00	0.41726	0.0063120	0.38339	0.015741	0.31718	0.0039800	0.38425	0.0042360
725.00	0.41749	0.0064440	0.38449	0.015963	0.31734	0.0037960	0.38444	0.0041090
730.00	0.41850	0.0065580	0.38549	0.016069	0.31734	0.0037520	0.38445	0.0041060
735.00	0.41955	0.0067730	0.38635	0.015710	0.31789	0.0036330	0.38504	0.0040350
740.00	0.42035	0.0066420	0.38724	0.015660	0.31764	0.0036920	0.38546	0.0039400
745.00	0.42157	0.0064320	0.38799	0.016591	0.31771	0.0037210	0.38575	0.0040780
750.00	0.42229	0.0064760	0.38869	0.016539	0.31814	0.0036430	0.38664	0.0040310
755.00	0.42384	0.0066210	0.38951	0.016719	0.31767	0.0037430	0.38651	0.0040470
760.00	0.42399	0.0066720	0.38977	0.016804	0.31799	0.0037690	0.38750	0.0041090
765.00	0.42578	0.0065610	0.39078	0.016534	0.31724	0.0036070	0.38733	0.0039830
770.00	0.42600	0.0067130	0.39080	0.016334	0.31710	0.0036570	0.38763	0.0039480
775.00	0.42710	0.0065590	0.39135	0.016893	0.31650	0.0037360	0.38795	0.0042280
780.00	0.42795	0.0066650	0.39187	0.016879	0.31607	0.0037300	0.38853	0.0042760
785.00	0.42855	0.0067080	0.39245	0.016232	0.31543	0.0039000	0.38921	0.0043020
790.00	0.42962	0.0068120	0.39269	0.016201	0.31417	0.0037650	0.38939	0.0042490
795.00	0.42987	0.0066730	0.39331	0.016303	0.31385	0.0037690	0.39003	0.0043070
800.00	0.43080	0.0063850	0.39340	0.011941	0.31190	0.0042130	0.39067	0.0049400
805.00	0.43125	0.0062340	0.39375	0.011632	0.31071	0.0041030	0.39069	0.0047110
810.00	0.43203	0.0063910	0.39381	0.011442	0.31006	0.0041640	0.39109	0.0046750
815.00	0.43248	0.0063030	0.39310	0.010590	0.30853	0.0043930	0.39145	0.0046310
820.00	0.43267	0.0064030	0.39311	0.010743	0.30696	0.0043070	0.39187	0.0044730
825.00	0.43323	0.0064480	0.39318	0.010813	0.30587	0.0041400	0.39131	0.0045530
830.00	0.43373	0.0064760	0.39313	0.010794	0.30412	0.0042150	0.39095	0.0048080
835.00	0.43373	0.0063640	0.39261	0.011245	0.30284	0.0041390	0.39019	0.0046200
840.00	0.43425	0.0062060	0.39221	0.011184	0.30154	0.0042410	0.38953	0.0044080
845.00	0.43387	0.0063610	0.39093	0.010820	0.29980	0.0041500	0.38917	0.0047560
850.00	0.43442	0.0062180	0.39119	0.010826	0.29878	0.0040760	0.38905	0.0045110
855.00	0.43506	0.0058190	0.39093	0.0057240	0.29634	0.0039930	0.38752	0.0044840
860.00	0.43541	0.0060960	0.39006	0.0059310	0.29463	0.0045700	0.38680	0.0045620
865.00	0.43469	0.0057240	0.38886	0.0057250	0.29343	0.0038860	0.38615	0.0047800
870.00	0.43519	0.0059780	0.38833	0.0053500	0.29187	0.0040650	0.38575	0.0044990
875.00	0.43481	0.0055510	0.38613	0.0049860	0.29008	0.0037330	0.38514	0.0045100
880.00	0.43456	0.0054520	0.38626	0.0048870	0.28901	0.0038650	0.38399	0.0048120
885.00	0.43507	0.0057670	0.38686	0.0058380	0.28770	0.0039430	0.38331	0.0045380
890.00	0.43517	0.0054660	0.38583	0.0054580	0.28674	0.0038990	0.38291	0.0043340
895.00	0.43515	0.0052320	0.38483	0.0048090	0.28526	0.0039650	0.38264	0.0043180
900.00	0.43479	0.0052860	0.38436	0.0048580	0.28455	0.0036210	0.38215	0.0042290
905.00	0.43450	0.0054740	0.38394	0.0056450	0.28345	0.0040570	0.38109	0.0048690
910.00	0.43560	0.0056750	0.38292	0.0052580	0.28301	0.0039040	0.38100	0.0046030
915.00	0.43472	0.0055170	0.38418	0.0056100	0.28168	0.0037380	0.38072	0.0045740
920.00	0.43506	0.0054140	0.38404	0.0060210	0.28171	0.0036140	0.38143	0.0042140
925.00	0.43552	0.0056360	0.38426	0.0056660	0.28137	0.0037810	0.38091	0.0045190
930.00	0.43572	0.0051330	0.38461	0.0055730	0.28141	0.0038130	0.38098	0.0044630
935.00	0.43594	0.0054010	0.38417	0.0058980	0.28108	0.0038700	0.38138	0.0046830
940.00	0.43711	0.0053150	0.38457	0.0058090	0.28091	0.0036460	0.38211	0.0043520
945.00	0.43766	0.0054220	0.38562	0.0070280	0.28100	0.0037520	0.38228	0.0044740
950.00	0.43812	0.0052300	0.38600	0.0070350	0.28144	0.0038540	0.38245	0.0043550
955.00	0.43814	0.0055770	0.38690	0.0074910	0.28152	0.0039970	0.38287	0.0043020
960.00	0.43940	0.0054230	0.38768	0.0070280	0.28234	0.0038440	0.38406	0.0041360
965.00	0.43991	0.0053530	0.38830	0.0081730	0.28290	0.0039710	0.38464	0.0045270
970.00	0.44061	0.0053410	0.38882	0.0082330	0.28360	0.0039110	0.38515	0.0044910
975.00	0.44113	0.0052790	0.38907	0.0074360	0.28450	0.0036940	0.38555	0.0046850
980.00	0.44187	0.0056130	0.38965	0.0072280	0.28511	0.0036750	0.38735	0.0043920
985.00	0.44245	0.0056030	0.39168	0.0091680	0.28650	0.0039290	0.38795	0.0044640
990.00	0.44412	0.0056130	0.39300	0.0090720	0.28781	0.0038040	0.38946	0.0046000
995.00	0.44398	0.0053860	0.39350	0.0077530	0.28856	0.0035860	0.38945	0.0042780
1000.0	0.44512	0.0055160	0.39394	0.0076600	0.28960	0.0037790	0.39059	0.0045650
1005.0	0.44590	0.0057910	0.39610	0.0086900	0.29060	0.0040380	0.39130	0.0044110
1010.0	0.44739	0.0057750	0.39712	0.0083750	0.29235	0.0038860	0.39326	0.0044170
1015.0	0.44676	0.0054750	0.39884	0.0085820	0.29377	0.0039040	0.39331	0.0044370
1020.0	0.44874	0.0057510	0.39952	0.0085800	0.29465	0.0039590	0.39547	0.0046710
1025.0	0.44943	0.0056170	0.40107	0.0082780	0.29654	0.0036460	0.39582	0.0044490
1030.0	0.45018	0.0053840	0.40172	0.0087190	0.29788	0.0040290	0.39767	0.0044790
1035.0	0.45053	0.0055020	0.40232	0.0081430	0.29896	0.0035520	0.39854	0.0043130
1040.0	0.45118	0.0054790	0.40313	0.0081920	0.30001	0.0040630	0.39882	0.0046840
1045.0	0.45242	0.0058120	0.40567	0.0081680	0.30113	0.0040120	0.40051	0.0047270
1050.0	0.45278	0.0057560	0.40611	0.0084600	0.30314	0.0040340	0.40085	0.0048220
1055.0	0.45374	0.0055810	0.40692	0.0090300	0.30476	0.0038530	0.40264	0.0045440
1060.0	0.45454	0.0056000	0.40821	0.0087320	0.30604	0.0042250	0.40299	0.0044430
1065.0	0.45542	0.0054980	0.40864	0.0078850	0.30691	0.0041500	0.40464	0.0045750
1070.0	0.45610	0.0056520	0.40957	0.0082320	0.30846	0.0039410	0.40523	0.0046650
1075.0	0.45708	0.0057810	0.41158	0.0086710	0.30997	0.0040740	0.40675	0.0049680
1080.0	0.45723	0.0057510	0.41261	0.0088300	0.31161	0.0039430	0.40758	0.0047840
1085.0	0.45810	0.0058890	0.41192	0.0083790	0.31286	0.0039990	0.40854	0.0046160
1090.0	0.45908	0.0057730	0.41301	0.0082870	0.31442	0.0038690	0.40966	0.0048520
1095.0	0.45987	0.0057870	0.41375	0.0093770	0.31589	0.0044070	0.41134	0.0047660
1100.0	0.46047	0.0057880	0.41535	0.0091720	0.31772	0.0041660	0.41153	0.0048240
1105.0	0.46203	0.0055860	0.41532	0.0087940	0.31940	0.0039820	0.41322	0.0048380
1110.0	0.46232	0.0058430	0.41636	0.0088690	0.31995	0.0043940	0.41414	0.0048850
1115.0	0.46313	0.0057060	0.41834	0.0083450	0.32120	0.0042190	0.41485	0.0048670
1120.0	0.46368	0.0055200	0.41867	0.0079760	0.32212	0.0041840	0.41610	0.0048000
1125.0	0.46521	0.0058750	0.41903	0.0079350	0.32358	0.0043590	0.41718	0.0047140
1130.0	0.46517	0.0057540	0.41998	0.0080280	0.32527	0.0041770	0.41774	0.0045430
1135.0	0.46591	0.0062330	0.42112	0.0098520	0.32624	0.0041640	0.41885	0.0047270
1140.0	0.46645	0.0057350	0.42190	0.0099110	0.32768	0.0046150	0.41947	0.0046220
1145.0	0.46720	0.0056570	0.42270	0.0096890	0.32853	0.0043330	0.42071	0.0045910
1150.0	0.46803	0.0060100	0.42371	0.0096920	0.32938	0.0041250	0.42100	0.0048470
1155.0	0.46920	0.0058660	0.42478	0.010437	0.33129	0.0044830	0.42241	0.0046890
1160.0	0.46971	0.0059620	0.42577	0.010085	0.33237	0.0042110	0.42278	0.0046120
1165.0	0.47002	0.0060170	0.42658	0.010117	0.33326	0.0042240	0.42313	0.0044570
1170.0	0.47063	0.0057240	0.42747	0.010258	0.33423	0.0045750	0.42377	0.0046160
1175.0	0.47128	0.0061780	0.42755	0.010264	0.33542	0.0042850	0.42454	0.0046940
1180.0	0.47181	0.0061000	0.42862	0.010150	0.33557	0.0040550	0.42515	0.0052480
1185.0	0.47269	0.0060860	0.42861	0.0099510	0.33647	0.0043700	0.42598	0.0051050
1190.0	0.47321	0.0057740	0.43025	0.010005	0.33777	0.0040410	0.42653	0.0047440
1195.0	0.47368	0.0058350	0.43074	0.010992	0.33814	0.0043000	0.42721	0.0048330
1200.0	0.47388	0.0059810	0.43098	0.011009	0.33907	0.0041450	0.42735	0.0050110
1205.0	0.47445	0.0060950	0.43167	0.0091620	0.34014	0.0044890	0.42776	0.0051840
1210.0	0.47487	0.0060930	0.43319	0.0087810	0.34079	0.0047080	0.42890	0.0048570
1215.0	0.47577	0.0058550	0.43302	0.010265	0.34125	0.0040990	0.42938	0.0046700
1220.0	0.47586	0.0062260	0.43386	0.010278	0.34206	0.0039990	0.42967	0.0054070
1225.0	0.47651	0.0061740	0.43374	0.0095150	0.34269	0.0044020	0.42971	0.0050360
1230.0	0.47679	0.0058670	0.43470	0.0091080	0.34426	0.0042390	0.43108	0.0047240
1235.0	0.47750	0.0058260	0.43556	0.010563	0.34489	0.0044570	0.43136	0.0046470
1240.0	0.47776	0.0060460	0.43627	0.010273	0.34604	0.0042300	0.43205	0.0050810
1245.0	0.47791	0.0060320	0.43721	0.0094100	0.34657	0.0045990	0.43289	0.0047810
1250.0	0.47874	0.0060770	0.43722	0.0094810	0.34697	0.0042800	0.43354	0.0047480
1255.0	0.47946	0.0062060	0.43742	0.010310	0.34806	0.0043980	0.43388	0.0049660
1260.0	0.48011	0.0059930	0.43786	0.010126	0.34874	0.0046020	0.43390	0.0048540
1265.0	0.48097	0.0058550	0.43767	0.0094860	0.35057	0.0043400	0.43492	0.0047980
1270.0	0.48127	0.0059550	0.43882	0.0093150	0.35133	0.0043080	0.43571	0.0046760
1275.0	0.48230	0.0060590	0.44032	0.011449	0.35149	0.0042890	0.43644	0.0047360
1280.0	0.48254	0.0059620	0.43981	0.011346	0.35169	0.0044190	0.43674	0.0046650
1285.0	0.48305	0.0058080	0.44047	0.0097570	0.35210	0.0044350	0.43710	0.0045680
1290.0	0.48350	0.0059730	0.44099	0.0097240	0.35310	0.0043320	0.43752	0.0047030
1295.0	0.48434	0.0066080	0.44186	0.010941	0.35429	0.0044450	0.43850	0.0050600
1300.0	0.48559	0.0061880	0.44243	0.011042	0.35457	0.0041300	0.43942	0.0046120
1305.0	0.48618	0.0061040	0.44328	0.010203	0.35565	0.0043380	0.43979	0.0046010
1310.0	0.48669	0.0060770	0.44407	0.010037	0.35618	0.0043090	0.44106	0.0043900
1315.0	0.48713	0.0061360	0.44493	0.010911	0.35731	0.0045730	0.44118	0.0044350
1320.0	0.48808	0.0063420	0.44536	0.010686	0.35757	0.0045110	0.44210	0.0046520
1325.0	0.48858	0.0058050	0.44634	0.011179	0.35870	0.0046350	0.44293	0.0048650
1330.0	0.48939	0.0060270	0.44665	0.011002	0.35965	0.0044460	0.44331	0.0044750
1335.0	0.49030	0.0058550	0.44793	0.010889	0.36078	0.0043190	0.44420	0.0042560
1340.0	0.49067	0.0058080	0.44852	0.010879	0.36189	0.0044920	0.44510	0.0044170
1345.0	0.49078	0.0062710	0.44912	0.011264	0.36212	0.0046910	0.44555	0.0047930
1350.0	0.49106	0.0060050	0.44959	0.010936	0.36283	0.0046030	0.44569	0.0045910
1355.0	0.49160	0.0060380	0.45045	0.0096320	0.36329	0.0046830	0.44623	0.0043210
1360.0	0.49222	0.0063730	0.45148	0.0098890	0.36451	0.0046890	0.44726	0.0049580
1365.0	0.49310	0.0060060	0.45185	0.010686	0.36561	0.0047360	0.44801	0.0049220
1370.0	0.49366	0.0060500	0.45265	0.010589	0.36662	0.0045660	0.44891	0.0048520
1375.0	0.49481	0.0060550	0.45396	0.011428	0.36739	0.0045680	0.44949	0.0048600
1380.0	0.49559	0.0059580	0.45522	0.011853	0.36794	0.0046840	0.45001	0.0047380
1385.0	0.49625	0.0059720	0.45524	0.012331	0.36923	0.0045550	0.45120	0.0047290
1390.0	0.49654	0.0059880	0.45667	0.012181	0.36991	0.0046210	0.45178	0.0049820
1395.0	0.49717	0.0062950	0.45770	0.012633	0.37069	0.0046780	0.45254	0.0047910
1400.0	0.49709	0.0062540	0.45866	0.012365	0.37092	0.0047750	0.45300	0.0048450
1405.0	0.49758	0.0062130	0.45783	0.011109	0.37232	0.0047660	0.45330	0.0048460
1410.0	0.49877	0.0059130	0.45875	0.011126	0.37340	0.0047080	0.45363	0.0046600
1415.0	0.49978	0.0059220	0.46011	0.011938	0.37343	0.0046050	0.45542	0.0045310
1420.0	0.50062	0.0061190	0.46097	0.011876	0.37490	0.0049870	0.45584	0.0049510
1425.0	0.50121	0.0063500	0.46157	0.011700	0.37511	0.0045930	0.45682	0.0049630
1430.0	0.50232	0.0061320	0.46186	0.011292	0.37609	0.0046730	0.45746	0.0047620
1435.0	0.50301	0.0062130	0.46284	0.012342	0.37716	0.0047000	0.45814	0.0047200
1440.0	0.50371	0.0059560	0.46380	0.012333	0.37744	0.0047620	0.45857	0.0048200
1445.0	0.50352	0.0060670	0.46394	0.011338	0.37785	0.0048490	0.45914	0.0047400
1450.0	0.50420	0.0062740	0.46428	0.011174	0.37905	0.0046740	0.45975	0.0046890
1455.0	0.50476	0.0061830	0.46477	0.011776	0.37961	0.0049460	0.46052	0.0046310
1460.0	0.50555	0.0060980	0.46527	0.011810	0.38024	0.0047080	0.46084	0.0045980
1465.0	0.50604	0.0062040	0.46551	0.010651	0.38064	0.0045180	0.46136	0.0048490
1470.0	0.50633	0.0063380	0.46574	0.010239	0.38106	0.0047250	0.46200	0.0047670
1475.0	0.50735	0.0059660	0.46660	0.010321	0.38201	0.0046900	0.46247	0.0047860
1480.0	0.50757	0.0061040	0.46620	0.010266	0.38339	0.0046580	0.46340	0.0049220
1485.0	0.50795	0.0061520	0.46758	0.011654	0.38302	0.0046510	0.46390	0.0046840
1490.0	0.50876	0.0062330	0.46788	0.011942	0.38369	0.0046290	0.46400	0.0047650
1495.0	0.50893	0.0065510	0.46825	0.012304	0.38410	0.0048710	0.46470	0.0048340
1500.0	0.50966	0.0060130	0.46903	0.011922	0.38474	0.0047440	0.46493	0.0047030
1505.0	0.51038	0.0062920	0.47010	0.013365	0.38530	0.0048930	0.46563	0.0049760
1510.0	0.51062	0.0061220	0.47026	0.013227	0.38565	0.0049890	0.46596	0.0046980
1515.0	0.51115	0.0065750	0.46999	0.012484	0.38629	0.0048500	0.46647	0.0048740
1520.0	0.51127	0.0063700	0.47076	0.012766	0.38665	0.0045780	0.46716	0.0049450
1525.0	0.51138	0.0061960	0.47070	0.014227	0.38719	0.0048510	0.46734	0.0046760
1530.0	0.51207	0.0060690	0.47145	0.014263	0.38686	0.0047520	0.46792	0.0045780
1535.0	0.51259	0.0063930	0.47234	0.014188	0.38758	0.0050610	0.46850	0.0048660
1540.0	0.51340	0.0062640	0.47345	0.014268	0.38809	0.0051080	0.46876	0.0045510
1545.0	0.51337	0.0060590	0.47387	0.015059	0.38802	0.0048940	0.46924	0.0045920
1550.0	0.51395	0.0062470	0.47413	0.015158	0.38846	0.0049270	0.46936	0.0050670
