Wavelength	67481<10	sd	67481 10-20	sd	67481 20-45	sd	67481 <45	sd
300.00	0.18101	0.055176	0.15129	0.055328	0.11976	0.056376	0.15933	0.055228
305.00	0.17930	0.036041	0.14862	0.035945	0.11992	0.036233	0.15678	0.044818
310.00	0.18104	0.025964	0.15015	0.026532	0.12022	0.026376	0.15980	0.026530
315.00	0.18143	0.020472	0.15015	0.019734	0.12122	0.020367	0.16038	0.019974
320.00	0.18566	0.015900	0.15228	0.015906	0.12244	0.015772	0.16354	0.015867
325.00	0.18664	0.012665	0.15519	0.012798	0.12381	0.013118	0.16586	0.012753
330.00	0.19123	0.010721	0.15685	0.010504	0.12567	0.010651	0.16757	0.010555
335.00	0.19468	0.0089550	0.16043	0.0088000	0.12786	0.0090510	0.17116	0.0088290
340.00	0.19892	0.0075890	0.16416	0.0074200	0.13011	0.0079460	0.17446	0.0075480
345.00	0.20237	0.0062190	0.16753	0.0063030	0.13269	0.0071210	0.17807	0.0064560
350.00	0.20675	0.0055720	0.17094	0.0052040	0.13515	0.0063540	0.18092	0.0055340
355.00	0.21118	0.0050250	0.17493	0.0047560	0.13799	0.0058880	0.18519	0.0048570
360.00	0.21493	0.0043980	0.17870	0.0042550	0.14085	0.0052500	0.18945	0.0042840
365.00	0.21917	0.0040470	0.18172	0.0038110	0.14340	0.0047770	0.19296	0.0039380
370.00	0.22267	0.0038790	0.18534	0.0035720	0.14581	0.0045120	0.19637	0.0035470
375.00	0.22669	0.0034310	0.18844	0.0032680	0.14834	0.0045690	0.19974	0.0035340
380.00	0.23024	0.0034790	0.19199	0.0031570	0.15073	0.0045090	0.20323	0.0035940
385.00	0.23374	0.0035460	0.19500	0.0032010	0.15278	0.0047160	0.20710	0.0034100
390.00	0.23707	0.0036830	0.19768	0.0033510	0.15451	0.0052820	0.21082	0.0037020
395.00	0.24050	0.0041880	0.20116	0.0039180	0.15649	0.0056350	0.21490	0.0042670
400.00	0.24533	0.0031010	0.20412	0.0026770	0.15835	0.0043520	0.21898	0.0030500
405.00	0.24838	0.0028800	0.20643	0.0025490	0.15994	0.0046200	0.22106	0.0030710
410.00	0.25171	0.0028030	0.20915	0.0024560	0.16156	0.0043770	0.22396	0.0029960
415.00	0.25499	0.0027990	0.21165	0.0024910	0.16326	0.0045450	0.22637	0.0030820
420.00	0.25782	0.0029240	0.21393	0.0024970	0.16466	0.0043450	0.22924	0.0030800
425.00	0.26130	0.0028590	0.21634	0.0024740	0.16618	0.0045240	0.23167	0.0029770
430.00	0.26434	0.0028640	0.21879	0.0025320	0.16782	0.0044260	0.23433	0.0029610
435.00	0.26748	0.0029690	0.22109	0.0025260	0.16924	0.0049960	0.23602	0.0031060
440.00	0.27011	0.0029960	0.22315	0.0025580	0.17054	0.0042850	0.23839	0.0030410
445.00	0.27310	0.0030590	0.22512	0.0025280	0.17186	0.0047770	0.23993	0.0033220
450.00	0.27543	0.0030820	0.22716	0.0026150	0.17309	0.0048700	0.24210	0.0033240
455.00	0.27869	0.0029940	0.22930	0.0025450	0.17383	0.0053840	0.24365	0.0035980
460.00	0.28089	0.0030100	0.23112	0.0025620	0.17469	0.0053160	0.24601	0.0036650
465.00	0.28402	0.0030710	0.23326	0.0026530	0.17594	0.0050270	0.24836	0.0031180
470.00	0.28601	0.0032130	0.23487	0.0027500	0.17704	0.0049080	0.25036	0.0031510
475.00	0.28871	0.0031400	0.23678	0.0027170	0.17820	0.0053410	0.25121	0.0033590
480.00	0.29089	0.0032320	0.23854	0.0028230	0.17949	0.0054410	0.25340	0.0034010
485.00	0.29357	0.0031700	0.24037	0.0027040	0.18074	0.0051100	0.25536	0.0030670
490.00	0.29591	0.0033580	0.24223	0.0027840	0.18164	0.0044550	0.25729	0.0031500
495.00	0.29846	0.0032450	0.24382	0.0027480	0.18260	0.0047220	0.25829	0.0034730
500.00	0.30042	0.0032980	0.24561	0.0027300	0.18359	0.0044430	0.26013	0.0035200
505.00	0.30272	0.0035260	0.24702	0.0029250	0.18474	0.0049870	0.26113	0.0033600
510.00	0.30506	0.0034470	0.24890	0.0028730	0.18587	0.0050550	0.26333	0.0032940
515.00	0.30784	0.0033290	0.25096	0.0027810	0.18690	0.0042450	0.26511	0.0030160
520.00	0.30988	0.0034190	0.25262	0.0029280	0.18783	0.0038350	0.26681	0.0031640
525.00	0.31260	0.0034750	0.25453	0.0029450	0.18871	0.0037990	0.26822	0.0033010
530.00	0.31441	0.0033530	0.25608	0.0029080	0.18956	0.0031400	0.26994	0.0032460
535.00	0.31688	0.0035450	0.25791	0.0029200	0.19055	0.0034490	0.27141	0.0033830
540.00	0.31925	0.0035110	0.25959	0.0030240	0.19162	0.0031760	0.27311	0.0033900
545.00	0.32122	0.0034600	0.26114	0.0030080	0.19261	0.0032020	0.27445	0.0034670
550.00	0.32309	0.0036420	0.26258	0.0031020	0.19356	0.0032140	0.27598	0.0036380
555.00	0.32493	0.0034920	0.26402	0.0030000	0.19471	0.0027460	0.27709	0.0032030
560.00	0.32663	0.0036660	0.26564	0.0029580	0.19588	0.0024600	0.27860	0.0032070
565.00	0.32910	0.0037720	0.26738	0.0031030	0.19697	0.0022660	0.27983	0.0035050
570.00	0.33077	0.0036870	0.26864	0.0031760	0.19827	0.0023400	0.28096	0.0035690
575.00	0.33311	0.0036640	0.27031	0.0031570	0.19939	0.0022870	0.28195	0.0035790
580.00	0.33485	0.0036560	0.27190	0.0032510	0.20028	0.0022610	0.28355	0.0037070
585.00	0.33694	0.0036320	0.27355	0.0030650	0.20096	0.0024150	0.28435	0.0036420
590.00	0.33863	0.0035670	0.27455	0.0030340	0.20176	0.0023450	0.28554	0.0036240
595.00	0.34050	0.0036570	0.27599	0.0031030	0.20238	0.0024770	0.28635	0.0038200
600.00	0.34251	0.0035760	0.27769	0.0032120	0.20316	0.0024580	0.28772	0.0038170
605.00	0.34443	0.0035900	0.27902	0.0031620	0.20395	0.0030340	0.28786	0.0039050
610.00	0.34618	0.0037620	0.28056	0.0032290	0.20491	0.0031380	0.29013	0.0039790
615.00	0.34780	0.0037920	0.28197	0.0033250	0.20568	0.0026720	0.29128	0.0038490
620.00	0.34969	0.0037050	0.28339	0.0032650	0.20666	0.0032700	0.29306	0.0038120
625.00	0.35147	0.0037170	0.28516	0.0032960	0.20776	0.0027210	0.29490	0.0036370
630.00	0.35278	0.0037910	0.28633	0.0032490	0.20886	0.0027370	0.29637	0.0036370
635.00	0.35498	0.0038330	0.28790	0.0034040	0.20995	0.0027750	0.29809	0.0034610
640.00	0.35622	0.0037100	0.28922	0.0033880	0.21131	0.0025250	0.29945	0.0035160
645.00	0.35829	0.0037890	0.29079	0.0032910	0.21273	0.0020740	0.30060	0.0032730
650.00	0.35995	0.0039440	0.29212	0.0034640	0.21412	0.0022390	0.30196	0.0035890
655.00	0.36160	0.0039520	0.29362	0.0034210	0.21550	0.0021070	0.30306	0.0037700
660.00	0.36325	0.0040210	0.29496	0.0035470	0.21668	0.0022300	0.30409	0.0037820
665.00	0.36510	0.0039530	0.29637	0.0034440	0.21771	0.0022550	0.30516	0.0039570
670.00	0.36668	0.0040710	0.29770	0.0036100	0.21849	0.0022330	0.30602	0.0039700
675.00	0.36847	0.0039710	0.29926	0.0034540	0.21917	0.0022820	0.30678	0.0043370
680.00	0.37005	0.0039430	0.30066	0.0034700	0.22005	0.0022820	0.30792	0.0042990
685.00	0.37196	0.0040760	0.30209	0.0035640	0.22097	0.0022760	0.30967	0.0037800
690.00	0.37350	0.0040860	0.30360	0.0035650	0.22188	0.0022650	0.31092	0.0037290
695.00	0.37517	0.0040790	0.30489	0.0035360	0.22304	0.0024320	0.31220	0.0042640
700.00	0.37696	0.0042230	0.30653	0.0036790	0.22425	0.0025370	0.31331	0.0043970
705.00	0.37839	0.0041020	0.30796	0.0036410	0.22519	0.0023520	0.31459	0.0040540
710.00	0.38020	0.0041730	0.30961	0.0037100	0.22612	0.0023280	0.31573	0.0038550
715.00	0.38160	0.0042800	0.31060	0.0037060	0.22715	0.0024350	0.31686	0.0045950
720.00	0.38306	0.0043030	0.31212	0.0037600	0.22798	0.0025160	0.31786	0.0046420
725.00	0.38393	0.0043560	0.31321	0.0037270	0.22884	0.0025130	0.31887	0.0041030
730.00	0.38542	0.0042410	0.31453	0.0037190	0.22985	0.0024910	0.32006	0.0041120
735.00	0.38702	0.0042490	0.31596	0.0037680	0.23077	0.0025100	0.32069	0.0041760
740.00	0.38853	0.0045080	0.31702	0.0037920	0.23169	0.0024920	0.32194	0.0043760
745.00	0.38989	0.0044250	0.31830	0.0038950	0.23259	0.0024920	0.32331	0.0045400
750.00	0.39115	0.0043580	0.31923	0.0038240	0.23363	0.0025810	0.32425	0.0044830
755.00	0.39248	0.0044290	0.32068	0.0038270	0.23484	0.0026420	0.32551	0.0041030
760.00	0.39419	0.0043110	0.32175	0.0038080	0.23618	0.0026530	0.32686	0.0039940
765.00	0.39582	0.0044920	0.32307	0.0038240	0.23746	0.0026770	0.32706	0.0042530
770.00	0.39695	0.0045420	0.32405	0.0037790	0.23870	0.0025880	0.32767	0.0042160
775.00	0.39806	0.0044760	0.32502	0.0039370	0.23956	0.0026830	0.32857	0.0046470
780.00	0.39943	0.0045260	0.32582	0.0039280	0.24018	0.0025330	0.32905	0.0046410
785.00	0.40065	0.0045600	0.32651	0.0037840	0.24069	0.0025000	0.32983	0.0047760
790.00	0.40176	0.0047850	0.32710	0.0040370	0.24118	0.0025810	0.33023	0.0051320
795.00	0.40273	0.0046650	0.32800	0.0039530	0.24156	0.0025710	0.33123	0.0050180
800.00	0.40326	0.0048890	0.32821	0.0042030	0.24160	0.0033350	0.33182	0.0058910
805.00	0.40468	0.0050360	0.32913	0.0043060	0.24237	0.0033020	0.33297	0.0057040
810.00	0.40583	0.0050140	0.32944	0.0044290	0.24248	0.0032230	0.33290	0.0056810
815.00	0.40690	0.0048300	0.33006	0.0043160	0.24262	0.0032760	0.33323	0.0055530
820.00	0.40760	0.0047950	0.33018	0.0041260	0.24250	0.0033290	0.33380	0.0058310
825.00	0.40838	0.0049440	0.33031	0.0043540	0.24235	0.0032460	0.33355	0.0053040
830.00	0.40928	0.0049270	0.32989	0.0041710	0.24209	0.0033520	0.33429	0.0052120
835.00	0.40965	0.0049620	0.32989	0.0044000	0.24186	0.0034410	0.33414	0.0053210
840.00	0.41025	0.0049650	0.33008	0.0040170	0.24147	0.0033160	0.33352	0.0049700
845.00	0.41061	0.0049450	0.32897	0.0042110	0.24107	0.0033760	0.33429	0.0050140
850.00	0.41109	0.0049830	0.32919	0.0040850	0.24076	0.0033100	0.33418	0.0050820
855.00	0.41116	0.0048240	0.32919	0.0039840	0.23991	0.0037390	0.33456	0.0055580
860.00	0.41183	0.0046870	0.32818	0.0038940	0.23957	0.0034330	0.33406	0.0057800
865.00	0.41231	0.0044970	0.32736	0.0039140	0.23919	0.0034350	0.33493	0.0060220
870.00	0.41261	0.0044800	0.32810	0.0038380	0.23883	0.0033490	0.33497	0.0064030
875.00	0.41272	0.0042770	0.32818	0.0032670	0.23850	0.0030510	0.33343	0.0056200
880.00	0.41300	0.0041940	0.32702	0.0035690	0.23808	0.0028820	0.33413	0.0049910
885.00	0.41297	0.0043500	0.32589	0.0032920	0.23761	0.0028420	0.33341	0.0048910
890.00	0.41286	0.0038030	0.32630	0.0032290	0.23729	0.0029800	0.33320	0.0044510
895.00	0.41377	0.0040690	0.32599	0.0034010	0.23704	0.0029870	0.33357	0.0054080
900.00	0.41433	0.0039530	0.32607	0.0032560	0.23676	0.0027810	0.33430	0.0059120
905.00	0.41460	0.0048250	0.32655	0.0038420	0.23662	0.0033020	0.33467	0.0060940
910.00	0.41521	0.0043790	0.32729	0.0038190	0.23661	0.0031620	0.33562	0.0048100
915.00	0.41571	0.0042280	0.32568	0.0035760	0.23679	0.0029940	0.33535	0.0054820
920.00	0.41580	0.0039690	0.32565	0.0032820	0.23677	0.0028980	0.33628	0.0061160
925.00	0.41641	0.0043060	0.32727	0.0035450	0.23706	0.0030210	0.33707	0.0062070
930.00	0.41746	0.0039820	0.32737	0.0034490	0.23754	0.0029360	0.33701	0.0053000
935.00	0.41830	0.0042410	0.32809	0.0035740	0.23802	0.0028930	0.33849	0.0047700
940.00	0.41949	0.0040050	0.32824	0.0033700	0.23834	0.0029660	0.33828	0.0048640
945.00	0.42004	0.0041270	0.32914	0.0032040	0.23884	0.0029720	0.33993	0.0046920
950.00	0.42147	0.0040110	0.33088	0.0031660	0.23923	0.0028250	0.34026	0.0043000
955.00	0.42289	0.0040260	0.33175	0.0032870	0.23964	0.0030820	0.34111	0.0053170
960.00	0.42444	0.0044090	0.33267	0.0034610	0.24030	0.0029040	0.34291	0.0057500
965.00	0.42433	0.0041210	0.33380	0.0033460	0.24130	0.0032420	0.34301	0.0061780
970.00	0.42661	0.0041320	0.33547	0.0032380	0.24248	0.0029530	0.34480	0.0058710
975.00	0.42755	0.0042260	0.33698	0.0035180	0.24375	0.0031010	0.34674	0.0050990
980.00	0.42937	0.0040690	0.33841	0.0034730	0.24492	0.0029150	0.34738	0.0047330
985.00	0.43039	0.0039250	0.33977	0.0032480	0.24612	0.0028660	0.34933	0.0051580
990.00	0.43233	0.0042610	0.34133	0.0032670	0.24711	0.0033750	0.35063	0.0051980
995.00	0.43242	0.0042230	0.34290	0.0033890	0.24809	0.0028620	0.35156	0.0057180
1000.0	0.43484	0.0040220	0.34443	0.0033220	0.24897	0.0030710	0.35245	0.0061710
1005.0	0.43584	0.0043540	0.34591	0.0037100	0.25009	0.0030900	0.35508	0.0051770
1010.0	0.43806	0.0041770	0.34778	0.0035170	0.25105	0.0031580	0.35518	0.0045850
1015.0	0.43852	0.0045350	0.34882	0.0037480	0.25209	0.0032850	0.35684	0.0057040
1020.0	0.43948	0.0043620	0.35057	0.0035940	0.25307	0.0034040	0.35750	0.0053370
1025.0	0.43999	0.0042340	0.35196	0.0035730	0.25422	0.0028250	0.35880	0.0054760
1030.0	0.44253	0.0042240	0.35369	0.0036000	0.25533	0.0034990	0.36010	0.0057570
1035.0	0.44360	0.0044510	0.35527	0.0035120	0.25640	0.0032550	0.36141	0.0055980
1040.0	0.44479	0.0044390	0.35694	0.0036050	0.25778	0.0028920	0.36228	0.0055640
1045.0	0.44611	0.0042090	0.35786	0.0035490	0.25852	0.0033160	0.36452	0.0051000
1050.0	0.44747	0.0043740	0.35964	0.0037140	0.25926	0.0032600	0.36535	0.0049550
1055.0	0.44827	0.0045830	0.36016	0.0036310	0.26006	0.0030240	0.36718	0.0049280
1060.0	0.44995	0.0041320	0.36173	0.0036190	0.26108	0.0028290	0.36808	0.0050140
1065.0	0.45136	0.0042940	0.36323	0.0035050	0.26155	0.0029840	0.36957	0.0055330
1070.0	0.45228	0.0044900	0.36561	0.0036540	0.26261	0.0034530	0.37002	0.0052400
1075.0	0.45295	0.0044570	0.36587	0.0037290	0.26337	0.0031690	0.37114	0.0061950
1080.0	0.45385	0.0042460	0.36806	0.0035610	0.26463	0.0031890	0.37259	0.0061740
1085.0	0.45500	0.0040450	0.36902	0.0033620	0.26555	0.0030080	0.37411	0.0053740
1090.0	0.45763	0.0045970	0.37052	0.0036040	0.26682	0.0028530	0.37524	0.0055550
1095.0	0.45777	0.0044110	0.37163	0.0036960	0.26780	0.0029880	0.37551	0.0047760
1100.0	0.45949	0.0044130	0.37347	0.0037980	0.26902	0.0030790	0.37727	0.0046600
1105.0	0.46091	0.0043770	0.37497	0.0040040	0.26959	0.0028740	0.37907	0.0053550
1110.0	0.46214	0.0044760	0.37648	0.0039860	0.27051	0.0029460	0.37932	0.0056120
1115.0	0.46279	0.0044650	0.37707	0.0040150	0.27108	0.0031260	0.38044	0.0062810
1120.0	0.46493	0.0040950	0.37873	0.0035030	0.27186	0.0031210	0.38059	0.0064450
1125.0	0.46575	0.0043190	0.37977	0.0035100	0.27251	0.0030570	0.38222	0.0046640
1130.0	0.46621	0.0043180	0.38104	0.0038420	0.27330	0.0028610	0.38320	0.0047160
1135.0	0.46691	0.0041080	0.38256	0.0037550	0.27396	0.0029900	0.38392	0.0055870
1140.0	0.46882	0.0042690	0.38323	0.0037380	0.27507	0.0031300	0.38581	0.0059440
1145.0	0.46956	0.0046520	0.38480	0.0039480	0.27579	0.0032460	0.38556	0.0057910
1150.0	0.47054	0.0047710	0.38528	0.0040650	0.27665	0.0031890	0.38670	0.0055290
1155.0	0.47171	0.0046220	0.38675	0.0040010	0.27722	0.0030960	0.38724	0.0052750
1160.0	0.47298	0.0044770	0.38785	0.0040990	0.27783	0.0031480	0.38785	0.0052190
1165.0	0.47330	0.0041690	0.38836	0.0035130	0.27839	0.0029800	0.38882	0.0055690
1170.0	0.47488	0.0043450	0.38947	0.0038510	0.27914	0.0031710	0.38976	0.0056020
1175.0	0.47495	0.0043760	0.39039	0.0038580	0.27968	0.0032490	0.39109	0.0057340
1180.0	0.47589	0.0043010	0.39180	0.0037910	0.28058	0.0034560	0.39102	0.0051750
1185.0	0.47697	0.0046450	0.39224	0.0040380	0.28087	0.0031480	0.39195	0.0049790
1190.0	0.47844	0.0042940	0.39290	0.0038430	0.28114	0.0028430	0.39320	0.0050050
1195.0	0.47919	0.0047020	0.39391	0.0041000	0.28168	0.0030060	0.39423	0.0056000
1200.0	0.48026	0.0042520	0.39481	0.0038760	0.28253	0.0030160	0.39587	0.0047380
1205.0	0.48041	0.0044690	0.39605	0.0038290	0.28326	0.0032190	0.39678	0.0058680
1210.0	0.48086	0.0045970	0.39598	0.0041660	0.28465	0.0030780	0.39770	0.0061900
1215.0	0.48178	0.0049250	0.39754	0.0039430	0.28576	0.0034320	0.39861	0.0058400
1220.0	0.48246	0.0046890	0.39813	0.0039640	0.28668	0.0031650	0.39923	0.0053000
1225.0	0.48318	0.0047130	0.40012	0.0043370	0.28709	0.0031100	0.39944	0.0050680
1230.0	0.48392	0.0047740	0.39986	0.0042050	0.28764	0.0030660	0.40095	0.0049010
1235.0	0.48478	0.0047890	0.40051	0.0043330	0.28803	0.0030850	0.40191	0.0054180
1240.0	0.48601	0.0046970	0.40154	0.0037890	0.28869	0.0033500	0.40302	0.0056260
1245.0	0.48683	0.0046440	0.40257	0.0040120	0.28914	0.0032430	0.40328	0.0061560
1250.0	0.48793	0.0043980	0.40312	0.0038160	0.28999	0.0030120	0.40422	0.0062610
1255.0	0.48883	0.0047220	0.40390	0.0041450	0.29081	0.0032130	0.40462	0.0057780
1260.0	0.48846	0.0049060	0.40482	0.0038880	0.29189	0.0030450	0.40619	0.0055640
1265.0	0.48954	0.0045790	0.40681	0.0040950	0.29250	0.0031780	0.40672	0.0060220
1270.0	0.49176	0.0046550	0.40747	0.0040030	0.29364	0.0034390	0.40666	0.0062670
1275.0	0.49154	0.0048570	0.40775	0.0039780	0.29460	0.0033430	0.40759	0.0055730
1280.0	0.49279	0.0048480	0.40877	0.0040620	0.29541	0.0031770	0.40864	0.0058360
1285.0	0.49341	0.0044920	0.40941	0.0041620	0.29608	0.0031340	0.40852	0.0053610
1290.0	0.49432	0.0044700	0.41031	0.0039550	0.29711	0.0033150	0.40860	0.0050040
1295.0	0.49459	0.0046130	0.41119	0.0042580	0.29783	0.0035810	0.40983	0.0060080
1300.0	0.49525	0.0046680	0.41175	0.0039250	0.29827	0.0031330	0.41021	0.0050720
1305.0	0.49710	0.0047140	0.41299	0.0040060	0.29890	0.0031230	0.41158	0.0050600
1310.0	0.49802	0.0048480	0.41370	0.0043420	0.29951	0.0033230	0.41229	0.0052970
1315.0	0.49902	0.0049830	0.41556	0.0043590	0.30042	0.0034110	0.41237	0.0060810
1320.0	0.49973	0.0050920	0.41604	0.0040860	0.30158	0.0034250	0.41313	0.0055510
1325.0	0.50073	0.0049520	0.41729	0.0039950	0.30285	0.0031050	0.41460	0.0059570
1330.0	0.50178	0.0051800	0.41788	0.0044410	0.30399	0.0036130	0.41529	0.0060600
1335.0	0.50246	0.0050970	0.41884	0.0040560	0.30541	0.0034650	0.41614	0.0052210
1340.0	0.50390	0.0046400	0.42058	0.0040320	0.30639	0.0033570	0.41667	0.0054870
1345.0	0.50435	0.0045620	0.42046	0.0038730	0.30724	0.0032870	0.41713	0.0056440
1350.0	0.50448	0.0047340	0.42121	0.0041620	0.30812	0.0033140	0.41840	0.0057140
1355.0	0.50543	0.0047030	0.42256	0.0042700	0.30895	0.0034780	0.41868	0.0062200
1360.0	0.50643	0.0053720	0.42337	0.0046270	0.30992	0.0040200	0.41965	0.0064070
1365.0	0.50781	0.0055740	0.42498	0.0046170	0.31086	0.0036630	0.42005	0.0061060
1370.0	0.50856	0.0047440	0.42546	0.0045590	0.31177	0.0030600	0.42112	0.0057710
1375.0	0.50971	0.0046460	0.42725	0.0043790	0.31245	0.0036490	0.42143	0.0056030
1380.0	0.51045	0.0048500	0.42681	0.0043050	0.31327	0.0036210	0.42273	0.0051670
1385.0	0.51138	0.0049030	0.42856	0.0040230	0.31404	0.0038930	0.42398	0.0058160
1390.0	0.51165	0.0048030	0.43016	0.0044660	0.31490	0.0035600	0.42553	0.0056130
1395.0	0.51256	0.0049160	0.43141	0.0045220	0.31559	0.0036070	0.42601	0.0065330
1400.0	0.51313	0.0052880	0.43086	0.0044570	0.31652	0.0039080	0.42723	0.0067920
1405.0	0.51381	0.0047030	0.43301	0.0038860	0.31782	0.0036300	0.42851	0.0063110
1410.0	0.51424	0.0054900	0.43296	0.0045940	0.31896	0.0038100	0.42921	0.0062760
1415.0	0.51530	0.0049420	0.43339	0.0044070	0.31978	0.0035910	0.42985	0.0056250
1420.0	0.51564	0.0048510	0.43418	0.0045600	0.32059	0.0039060	0.43124	0.0055740
1425.0	0.51756	0.0045020	0.43633	0.0042430	0.32161	0.0036190	0.43099	0.0058110
1430.0	0.51743	0.0049510	0.43709	0.0042230	0.32234	0.0037330	0.43219	0.0059770
1435.0	0.51908	0.0053070	0.43821	0.0048790	0.32308	0.0040810	0.43263	0.0069850
1440.0	0.51969	0.0055010	0.43926	0.0045930	0.32416	0.0045450	0.43400	0.0075210
1445.0	0.51996	0.0051230	0.43967	0.0044790	0.32536	0.0042640	0.43435	0.0066060
1450.0	0.52127	0.0047290	0.44064	0.0045160	0.32629	0.0043860	0.43517	0.0063010
1455.0	0.52235	0.0052580	0.44086	0.0050050	0.32721	0.0042140	0.43574	0.0051700
1460.0	0.52215	0.0048040	0.44209	0.0044130	0.32806	0.0037430	0.43741	0.0052390
1465.0	0.52297	0.0049610	0.44315	0.0046280	0.32908	0.0039990	0.43804	0.0058640
1470.0	0.52309	0.0050520	0.44398	0.0045830	0.32997	0.0035220	0.43905	0.0062350
1475.0	0.52517	0.0050750	0.44485	0.0048610	0.33066	0.0041970	0.43804	0.0071510
1480.0	0.52579	0.0050750	0.44557	0.0047600	0.33148	0.0043670	0.43911	0.0069600
1485.0	0.52597	0.0049340	0.44604	0.0044860	0.33241	0.0039380	0.44037	0.0064330
1490.0	0.52759	0.0047980	0.44649	0.0044300	0.33313	0.0037570	0.44119	0.0064620
1495.0	0.52720	0.0052210	0.44692	0.0047910	0.33369	0.0046250	0.44089	0.0055700
1500.0	0.52843	0.0050630	0.44835	0.0046740	0.33439	0.0040720	0.44287	0.0060950
1505.0	0.52930	0.0051700	0.44871	0.0046370	0.33490	0.0038000	0.44276	0.0061240
1510.0	0.53024	0.0048400	0.45039	0.0044100	0.33554	0.0038740	0.44336	0.0059260
1515.0	0.53064	0.0049910	0.45036	0.0045380	0.33621	0.0036950	0.44364	0.0069450
1520.0	0.53053	0.0051640	0.45074	0.0048480	0.33683	0.0040050	0.44383	0.0070860
1525.0	0.53140	0.0050110	0.45167	0.0043890	0.33735	0.0043880	0.44520	0.0063190
1530.0	0.53254	0.0049800	0.45260	0.0046660	0.33768	0.0041400	0.44592	0.0065010
1535.0	0.53317	0.0045300	0.45297	0.0042500	0.33825	0.0042390	0.44649	0.0061340
1540.0	0.53475	0.0048460	0.45428	0.0047820	0.33894	0.0037580	0.44735	0.0060480
